wavelength
0
1.6
3.2
4.8
6.4
8
9.6
11.2
12.8
14.4
16
17.6
19.2
20.8
22.4
24
25.6
27.2
28.8
30.4
32
33.6
35.2
36.8
38.4
40
41.6
43.2
44.8
46.4
48
49.6
51.2
52.8
54.4
56
57.6
59.2
60.8
62.4
64
65.6
67.2
68.8
70.4
72
73.6
75.2
76.8
78.4
80
81.6
83.2
84.8
86.4
88
89.6
91.2
92.8
94.4
96
97.6
99.2
100.8
102.4
104
105.6
107.2
108.8
110.4
112
113.6
115.2
116.8
118.4
120
121.6
123.2
124.8
126.4
128
129.6
131.2
132.8
134.4
136
137.6
139.2
140.8
142.4
144
145.6
147.2
148.8
150.4
152
153.6
155.2
156.8
158.4
160
161.6
163.2
164.8
166.4
168
169.6
171.2
172.8
174.4
176
177.6
179.2
180.8
182.4
184
185.6
187.2
188.8
190.4
192
193.6
195.2
196.8
198.4
200
201.6
203.2
204.8
206.4
208
209.6
211.2
212.8
214.4
216
217.6
219.2
220.8
222.4
224
225.6
227.2
228.8
230.4
232
233.6
235.2
236.8
238.4
240
241.6
243.2
244.8
246.4
248
249.6
251.2
252.8
254.4
256
257.6
259.2
260.8
262.4
264
265.6
267.2
268.8
270.4
272
273.6
275.2
276.8
278.4
280
281.6
283.2
284.8
286.4
288
289.6
291.2
292.8
294.4
296
297.6
299.2
300.8
302.4
304
305.6
307.2
308.8
310.4
312
313.6
315.2
316.8
318.4
320
321.6
323.2
324.8
326.4
328
329.6
331.2
332.8
334.4
336
337.6
339.2
340.8
342.4
344
345.6
347.2
348.8
350.4
352
353.6
355.2
356.8
358.4
360
361.6
363.2
364.8
366.4
368
369.6
371.2
372.8
374.4
376
377.6
379.2
380.8
382.4
384
385.6
387.2
388.8
390.4
392
393.6
395.2
396.8
398.4
400
401.6
403.2
404.8
406.4
408
409.6
411.2
412.8
414.4
416
417.6
419.2
420.8
422.4
424
425.6
427.2
428.8
430.4
432
433.6
435.2
436.8
438.4
440
441.6
443.2
444.8
446.4
448
449.6
451.2
452.8
454.4
456
457.6
459.2
460.8
462.4
464
465.6
467.2
468.8
470.4
472
473.6
475.2
476.8
478.4
480
481.6
483.2
484.8
486.4
488
489.6
491.2
492.8
494.4
496
497.6
499.2
500.8
502.4
504
505.6
507.2
508.8
510.4
512
513.6
515.2
516.8
518.4
520
521.6
523.2
524.8
526.4
528
529.6
531.2
532.8
534.4
536
537.6
539.2
540.8
542.4
544
545.6
547.2
548.8
550.4
552
553.6
555.2
556.8
558.4
560
561.6
563.2
564.8
566.4
568
569.6
571.2
572.8
574.4
576
577.6
579.2
580.8
582.4
584
585.6
587.2
588.8
590.4
592
593.6
595.2
596.8
598.4
600
601.6
603.2
604.8
606.4
608
609.6
611.2
612.8
614.4
616
617.6
619.2
620.8
622.4
624
625.6
627.2
628.8
630.4
632
633.6
635.2
636.8
638.4
640
641.6
643.2
644.8
646.4
648
649.6
651.2
652.8
654.4
656
657.6
659.2
660.8
662.4
664
665.6
667.2
668.8
670.4
672
673.6
675.2
676.8
678.4
680
681.6
683.2
684.8
686.4
688
689.6
691.2
692.8
694.4
696
697.6
699.2
700.8
702.4
704
705.6
707.2
708.8
710.4
712
713.6
715.2
716.8
718.4
720
721.6
723.2
724.8
726.4
728
729.6
731.2
732.8
734.4
736
737.6
739.2
740.8
742.4
744
745.6
747.2
748.8
750.4
752
753.6
755.2
756.8
758.4
760
761.6
763.2
764.8
766.4
768
769.6
771.2
772.8
774.4
776
777.6
779.2
780.8
782.4
784
785.6
787.2
788.8
790.4
792
793.6
795.2
796.8
798.4